wavelength,intensity
6217.29,6.57E-14
6218.29,6.63E-14
6219.28,6.55E-14
6220.28,6.59E-14
6221.28,6.62E-14
6222.27,6.66E-14
6223.27,6.67E-14
6224.27,6.60E-14
6225.26,6.65E-14
6226.26,6.71E-14
6227.25,6.63E-14
6228.25,6.63E-14
6229.25,6.57E-14
6230.24,6.59E-14
6231.24,6.51E-14
6232.24,6.53E-14
6233.23,6.53E-14
6234.23,6.56E-14
6235.23,6.71E-14
6236.22,6.66E-14
6237.22,6.63E-14
6238.21,6.48E-14
6239.21,6.46E-14
6240.21,6.55E-14
6241.2,6.48E-14
6242.2,6.41E-14
6243.2,6.42E-14
6244.19,6.42E-14
6245.19,6.48E-14
6246.19,6.43E-14
6247.18,6.46E-14
6248.18,6.44E-14
6249.17,6.49E-14
6250.17,6.50E-14
6251.17,6.52E-14
6252.16,6.56E-14
6253.16,6.52E-14
6254.16,6.38E-14
6255.15,6.27E-14
6256.15,6.30E-14
6257.15,6.24E-14
6258.14,6.19E-14
6259.14,6.24E-14
6260.13,6.30E-14
6261.13,6.32E-14
6262.13,6.48E-14
6263.12,6.57E-14
6264.12,6.65E-14
6265.12,6.64E-14
6266.11,6.75E-14
6267.11,6.84E-14
6268.11,6.78E-14
6269.1,6.82E-14
6270.1,6.91E-14
6271.09,6.94E-14
6272.09,6.92E-14
6273.09,7.00E-14
6274.08,7.00E-14
6275.08,6.99E-14
6276.08,7.25E-14
6277.07,7.50E-14
6278.07,7.46E-14
6279.07,7.61E-14
6280.06,7.76E-14
6281.06,7.87E-14
6282.05,8.00E-14
6283.05,8.14E-14
6284.05,8.35E-14
6285.04,8.60E-14
6286.04,8.89E-14
6287.04,9.08E-14
6288.03,9.44E-14
6289.03,9.88E-14
6290.03,1.02E-13
6291.02,1.06E-13
6292.02,1.10E-13
6293.01,1.13E-13
6294.01,1.15E-13
6295.01,1.19E-13
6296,1.23E-13
6297,1.25E-13
6298,1.29E-13
6298.99,1.30E-13
6299.99,1.27E-13
6300.99,1.24E-13
6301.98,1.21E-13
6302.98,1.17E-13
6303.97,1.12E-13
6304.97,1.05E-13
6305.97,1.02E-13
6306.96,1.00E-13
6307.96,9.80E-14
6308.96,9.69E-14
6309.95,9.39E-14
6310.95,9.01E-14
6311.95,8.63E-14
6312.94,8.29E-14
6313.94,8.14E-14
6314.93,7.90E-14
6315.93,7.59E-14
6316.93,7.40E-14
6317.92,7.24E-14
6318.92,7.20E-14
6319.92,7.17E-14
6320.91,7.09E-14
6321.91,7.17E-14
6322.91,7.09E-14
6323.9,7.10E-14
6324.9,7.13E-14
6325.89,7.18E-14
6326.89,7.12E-14
6327.89,7.05E-14
6328.88,7.15E-14
6329.88,7.14E-14
6330.88,7.16E-14
6331.87,7.04E-14
6332.87,7.08E-14
6333.87,7.10E-14
6334.86,7.00E-14
6335.86,6.97E-14
6336.85,6.90E-14
6337.85,6.79E-14
6338.85,6.86E-14
6339.84,6.99E-14
6340.84,7.09E-14
6341.84,6.99E-14
6342.83,7.02E-14
6343.83,7.02E-14
6344.83,7.04E-14
6345.82,7.04E-14
6346.82,7.15E-14
6347.81,7.24E-14
6348.81,7.40E-14
6349.81,7.55E-14
6350.8,7.72E-14
6351.8,7.79E-14
6352.8,7.83E-14
6353.79,7.99E-14
6354.79,8.10E-14
6355.79,8.21E-14
6356.78,8.40E-14
6357.78,8.41E-14
6358.77,8.49E-14
6359.77,8.58E-14
6360.77,8.74E-14
6361.76,8.77E-14
6362.76,8.80E-14
6363.76,8.73E-14
6364.75,8.79E-14
6365.75,8.84E-14
6366.75,8.79E-14
6367.74,8.78E-14
6368.74,8.57E-14
6369.73,8.43E-14
6370.73,8.60E-14
6371.73,8.50E-14
6372.72,8.21E-14
6373.72,8.05E-14
6374.72,7.89E-14
6375.71,7.74E-14
6376.71,7.60E-14
6377.71,7.61E-14
6378.7,7.51E-14
6379.7,7.34E-14
6380.69,7.23E-14
6381.69,7.23E-14
6382.69,7.26E-14
6383.68,7.12E-14
6384.68,7.02E-14
6385.68,7.09E-14
6386.67,7.10E-14
6387.67,7.01E-14
6388.67,6.99E-14
6389.66,6.98E-14
6390.66,6.93E-14
6391.65,6.96E-14
6392.65,6.85E-14
6393.65,6.78E-14
6394.64,6.74E-14
6395.64,6.72E-14
6396.64,6.78E-14
6397.63,6.76E-14
6398.63,6.73E-14
6399.62,6.73E-14
6400.62,6.79E-14
6401.62,6.83E-14
6402.61,6.88E-14
6403.61,6.79E-14
6404.61,6.89E-14
6405.6,6.85E-14
6406.6,6.78E-14
6407.6,6.71E-14
6408.59,6.77E-14
6409.59,6.76E-14
6410.58,6.78E-14
6411.58,6.72E-14
6412.58,6.79E-14
6413.57,6.77E-14
6414.57,6.82E-14
6415.57,6.80E-14
6416.56,6.76E-14
6417.56,6.87E-14
6418.56,6.84E-14
6419.55,6.85E-14
6420.55,6.91E-14
6421.54,6.92E-14
6422.54,6.91E-14
6423.54,7.03E-14
6424.53,7.02E-14
6425.53,7.03E-14
6426.53,7.08E-14
6427.52,7.05E-14
6428.52,7.09E-14
6429.52,7.11E-14
6430.51,7.09E-14
6431.51,7.12E-14
6432.5,7.08E-14
6433.5,7.00E-14
6434.5,6.94E-14
6435.49,7.05E-14
6436.49,6.98E-14
6437.49,6.98E-14
6438.48,6.96E-14
6439.48,6.82E-14
6440.48,6.96E-14
6441.47,7.00E-14
6442.47,7.02E-14
6443.46,7.02E-14
6444.46,6.92E-14
6445.46,6.93E-14
6446.45,7.02E-14
6447.45,6.90E-14
6448.45,6.74E-14
6449.44,6.72E-14
6450.44,6.54E-14
6451.44,6.42E-14
6452.43,6.49E-14
6453.43,6.67E-14
6454.42,6.67E-14
6455.42,6.64E-14
6456.42,6.70E-14
6457.41,6.73E-14
6458.41,6.73E-14
6459.41,6.61E-14
6460.4,6.65E-14
6461.4,6.75E-14
6462.4,6.82E-14
6463.39,6.76E-14
6464.39,6.77E-14
6465.38,6.76E-14
6466.38,6.80E-14
6467.38,6.79E-14
6468.37,6.75E-14
6469.37,6.85E-14
6470.37,6.91E-14
6471.36,6.88E-14
6472.36,6.81E-14
6473.36,6.91E-14
6474.35,6.98E-14
6475.35,6.98E-14
6476.34,6.98E-14
6477.34,6.99E-14
6478.34,6.98E-14
6479.33,6.90E-14
6480.33,6.95E-14
6481.33,6.98E-14
6482.32,6.87E-14
6483.32,6.87E-14
6484.32,6.77E-14
6485.31,6.83E-14
6486.31,6.90E-14
6487.3,6.80E-14
6488.3,6.78E-14
6489.3,6.77E-14
6490.29,6.64E-14
6491.29,6.51E-14
6492.29,6.38E-14
6493.28,6.38E-14
6494.28,6.45E-14
6495.28,6.49E-14
6496.27,6.55E-14
6497.27,6.63E-14
6498.26,6.59E-14
6499.26,6.70E-14
6500.26,6.82E-14
6501.25,6.93E-14
6502.25,7.11E-14
6503.25,7.24E-14
6504.24,7.33E-14
6505.24,7.43E-14
6506.24,7.51E-14
6507.23,7.55E-14
6508.23,7.69E-14
6509.22,7.84E-14
6510.22,8.01E-14
6511.22,8.17E-14
6512.21,8.26E-14
6513.21,8.43E-14
6514.21,8.62E-14
6515.2,8.87E-14
6516.2,9.08E-14
6517.2,9.31E-14
6518.19,9.50E-14
6519.19,9.67E-14
6520.18,1.00E-13
6521.18,1.06E-13
6522.18,1.11E-13
6523.17,1.17E-13
6524.17,1.22E-13
6525.17,1.30E-13
6526.16,1.40E-13
6527.16,1.48E-13
6528.16,1.54E-13
6529.15,1.63E-13
6530.15,1.72E-13
6531.14,1.80E-13
6532.14,1.90E-13
6533.14,2.03E-13
6534.13,2.19E-13
6535.13,2.37E-13
6536.13,2.55E-13
6537.12,2.77E-13
6538.12,3.02E-13
6539.12,3.27E-13
6540.11,3.54E-13
6541.11,3.76E-13
6542.1,3.96E-13
6543.1,4.15E-13
6544.1,4.32E-13
6545.09,4.44E-13
6546.09,4.55E-13
6547.09,4.65E-13
6548.08,4.82E-13
6549.08,4.97E-13
6550.08,5.06E-13
6551.07,5.15E-13
6552.07,5.25E-13
6553.06,5.36E-13
6554.06,5.52E-13
6555.06,5.68E-13
6556.05,5.75E-13
6557.05,5.83E-13
6558.05,5.99E-13
6559.04,6.16E-13
6560.04,6.28E-13
6561.04,6.32E-13
6562.03,6.33E-13
6563.03,6.40E-13
6564.02,6.43E-13
6565.02,6.38E-13
6566.02,6.31E-13
6567.01,6.25E-13
6568.01,6.43E-13
6569.01,6.77E-13
6570,7.10E-13
6571,7.31E-13
6572,7.44E-13
6572.99,7.58E-13
6573.99,7.73E-13
6574.98,7.80E-13
6575.98,7.81E-13
6576.98,7.74E-13
6577.97,7.72E-13
6578.97,7.73E-13
6579.97,7.71E-13
6580.96,7.60E-13
6581.96,7.47E-13
6582.96,7.33E-13
6583.95,7.20E-13
6584.95,6.98E-13
6585.94,6.63E-13
6586.94,6.12E-13
6587.94,5.52E-13
6588.93,5.05E-13
6589.93,4.90E-13
6590.93,4.79E-13
6591.92,4.47E-13
6592.92,4.04E-13
6593.92,3.67E-13
6594.91,3.36E-13
6595.91,3.05E-13
6596.9,2.79E-13
6597.9,2.54E-13
6598.9,2.30E-13
6599.89,2.06E-13
6600.89,1.82E-13
6601.89,1.63E-13
6602.88,1.48E-13
6603.88,1.36E-13
6604.88,1.26E-13
6605.87,1.19E-13
6606.87,1.13E-13
6607.86,1.05E-13
6608.86,9.91E-14
6609.86,9.60E-14
6610.85,9.27E-14
6611.85,8.96E-14
6612.85,8.83E-14
6613.84,8.63E-14
6614.84,8.46E-14
6615.83,8.33E-14
6616.83,8.08E-14
6617.83,7.88E-14
6618.82,7.84E-14
6619.82,7.69E-14
6620.82,7.58E-14
6621.81,7.51E-14
6622.81,7.43E-14
6623.81,7.36E-14
6624.8,7.25E-14
6625.8,7.21E-14
6626.79,7.16E-14
6627.79,7.13E-14
6628.79,7.04E-14
6629.78,7.01E-14
6630.78,6.95E-14
6631.78,6.94E-14
6632.77,6.91E-14
6633.77,6.86E-14
6634.77,6.85E-14
6635.76,6.86E-14
6636.76,6.84E-14
6637.75,6.91E-14
6638.75,6.89E-14
6639.75,6.82E-14
6640.74,6.88E-14
6641.74,6.96E-14
6642.74,6.91E-14
6643.73,6.87E-14
6644.73,6.94E-14
6645.73,6.99E-14
6646.72,6.96E-14
6647.72,6.94E-14
6648.71,6.97E-14
6649.71,7.05E-14
6650.71,6.98E-14
6651.7,6.94E-14
6652.7,6.89E-14
6653.7,6.95E-14
6654.69,7.00E-14
6655.69,6.96E-14
6656.69,7.00E-14
6657.68,7.01E-14
6658.68,6.94E-14
6659.68,6.91E-14
6660.67,6.93E-14
6661.67,6.90E-14
6662.66,6.92E-14
6663.66,6.91E-14
6664.66,6.92E-14
6665.65,6.93E-14
6666.65,6.95E-14
6667.65,7.00E-14
6668.64,7.16E-14
6669.64,7.22E-14
6670.64,7.20E-14
6671.63,7.26E-14
6672.63,7.31E-14
6673.62,7.35E-14
6674.62,7.48E-14
6675.62,7.38E-14
6676.61,7.42E-14
6677.61,7.30E-14
6678.61,7.35E-14
6679.6,7.45E-14
6680.6,7.35E-14
6681.6,7.35E-14
6682.59,7.41E-14
6683.59,7.44E-14
6684.58,7.52E-14
6685.58,7.61E-14
6686.58,7.64E-14
6687.57,7.73E-14
6688.57,7.74E-14
6689.57,7.79E-14
6690.56,7.93E-14
6691.56,7.96E-14
6692.56,7.96E-14
6693.55,8.07E-14
6694.55,8.16E-14
6695.54,8.25E-14
6696.54,8.37E-14
6697.54,8.43E-14
6698.53,8.51E-14
6699.53,8.73E-14
6700.53,8.90E-14
6701.52,9.32E-14
6702.52,9.60E-14
6703.52,9.96E-14
6704.51,1.04E-13
6705.51,1.08E-13
6706.5,1.13E-13
6707.5,1.19E-13
6708.5,1.24E-13
6709.49,1.28E-13
6710.49,1.32E-13
6711.49,1.36E-13
6712.48,1.40E-13
6713.48,1.43E-13
6714.48,1.46E-13
6715.47,1.52E-13
6716.47,1.58E-13
6717.46,1.65E-13
6718.46,1.69E-13
6719.46,1.70E-13
6720.45,1.68E-13
6721.45,1.65E-13
6722.45,1.64E-13
6723.44,1.64E-13
6724.44,1.64E-13
6725.44,1.64E-13
6726.43,1.65E-13
6727.43,1.65E-13
6728.42,1.63E-13
6729.42,1.62E-13
6730.42,1.60E-13
6731.41,1.59E-13
6732.41,1.56E-13
6733.41,1.51E-13
6734.4,1.43E-13
6735.4,1.32E-13
6736.4,1.24E-13
6737.39,1.20E-13
6738.39,1.19E-13
6739.38,1.14E-13
6740.38,1.08E-13
6741.38,1.04E-13
6742.37,9.91E-14
6743.37,9.47E-14
6744.37,9.10E-14
6745.36,8.72E-14
6746.36,8.40E-14
6747.35,8.11E-14
6748.35,7.82E-14
6749.35,7.52E-14
6750.34,7.24E-14
6751.34,7.13E-14
6752.34,7.00E-14
6753.33,6.93E-14
6754.33,6.94E-14
6755.33,6.84E-14
6756.32,6.81E-14
6757.32,6.75E-14
6758.31,6.72E-14
6759.31,6.75E-14
6760.31,6.68E-14
6761.3,6.68E-14
6762.3,6.68E-14
6763.3,6.69E-14
6764.29,6.58E-14
6765.29,6.55E-14
6766.29,6.54E-14
6767.28,6.48E-14
6768.28,6.46E-14
6769.27,6.40E-14
6770.27,6.43E-14
6771.27,6.47E-14
6772.26,6.49E-14
6773.26,6.52E-14
6774.26,6.53E-14
6775.25,6.57E-14
6776.25,6.60E-14
6777.25,6.60E-14
6778.24,6.64E-14
6779.24,6.60E-14
6780.23,6.56E-14
6781.23,6.60E-14
6782.23,6.57E-14
6783.22,6.54E-14
6784.22,6.42E-14
6785.22,6.38E-14
6786.21,6.43E-14
6787.21,6.41E-14
6788.21,6.37E-14
6789.2,6.46E-14
6790.2,6.44E-14
6791.19,6.50E-14
6792.19,6.46E-14
6793.19,6.46E-14
6794.18,6.45E-14
6795.18,6.43E-14
6796.18,6.49E-14
6797.17,6.45E-14
6798.17,6.44E-14
6799.17,6.43E-14
6800.16,6.44E-14
6801.16,6.50E-14
6802.15,6.54E-14
6803.15,6.55E-14
6804.15,6.64E-14
6805.14,6.59E-14
6806.14,6.61E-14
6807.14,6.60E-14
6808.13,6.60E-14
6809.13,6.59E-14
6810.13,6.58E-14
6811.12,6.54E-14
6812.12,6.45E-14
6813.11,6.51E-14
6814.11,6.53E-14
6815.11,6.41E-14
6816.1,6.49E-14
6817.1,6.51E-14
6818.1,6.50E-14
6819.09,6.53E-14
6820.09,6.61E-14
6821.09,6.59E-14
6822.08,6.60E-14
6823.08,6.57E-14
6824.07,6.60E-14
6825.07,6.59E-14
6826.07,6.55E-14
6827.06,6.55E-14
6828.06,6.49E-14
6829.06,6.50E-14
6830.05,6.54E-14
6831.05,6.54E-14
6832.05,6.52E-14
6833.04,6.47E-14
6834.04,6.44E-14
6835.03,6.53E-14
6836.03,6.51E-14
6837.03,6.48E-14
6838.02,6.42E-14
6839.02,6.36E-14
6840.02,6.48E-14
6841.01,6.59E-14
6842.01,6.34E-14
6843.01,6.29E-14
6844,6.38E-14
6845,6.40E-14
6845.99,6.46E-14
6846.99,6.44E-14
6847.99,6.41E-14
6848.98,6.49E-14
6849.98,6.58E-14
6850.98,6.39E-14
6851.97,6.46E-14
6852.97,6.48E-14
6853.97,6.38E-14
6854.96,6.35E-14
6855.96,6.39E-14
6856.95,6.40E-14
6857.95,6.36E-14
6858.95,6.45E-14
6859.94,6.49E-14
